#  
#  ARTDECO flux output for each k-dis band 
#  
# number of wavelengths
  38
# number of solar zenith angles
   1
# number of sampled altitudes 
  50
##################
# Wavelength (microns) 
       8.000000000
# Solar zenithal angle (deg) 
60.000
#     ALTITUDE           PRESSION           FLUX DW          FLUX UP           FLUX DIR
#       (KM)               (hPa)             (W.M-2)          (W.M-2)          (W.M-2) 
     120.000000000       0.000040000       0.037795480       0.970798374       0.037795480
     115.000000000       0.000060000       0.037795480       0.970798374       0.037795480
     110.000000000       0.000110000       0.037795480       0.970798374       0.037795480
     105.000000000       0.000200000       0.037795480       0.970798374       0.037795480
     100.000000000       0.000410000       0.037795480       0.970798374       0.037795480
      95.000000000       0.000880000       0.037795480       0.970798374       0.037795480
      90.000000000       0.001980000       0.037795480       0.970798374       0.037795480
      85.000000000       0.004560000       0.037795480       0.970798374       0.037795480
      80.000000000       0.010300000       0.037795480       0.970798374       0.037795480
      75.000000000       0.022200000       0.037796182       0.970799502       0.037795395
      70.000000000       0.047000000       0.037804245       0.970805328       0.037794748
      65.000000000       0.095000000       0.037851746       0.970812878       0.037792105
      60.000000000       0.188000000       0.038003451       0.970788006       0.037785965
      55.000000000       0.362000000       0.038396231       0.970632593       0.037773958
      50.000000000       0.683000000       0.039272476       0.970135854       0.037751626
      47.500000000       0.940000000       0.039950157       0.969676721       0.037734953
      45.000000000       1.290000000       0.040720642       0.969107744       0.037713205
      42.500000000       1.800000000       0.041470606       0.968515038       0.037685120
      40.000000000       2.530000000       0.042141337       0.967935106       0.037649473
      37.500000000       3.600000000       0.042682053       0.967402508       0.037605411
      35.000000000       5.180000000       0.043050550       0.966967088       0.037551897
      32.500000000       7.560000000       0.043228839       0.966714643       0.037486650
      30.000000000      11.100000000       0.043343982       0.966700335       0.037404662
      27.500000000      16.460000000       0.043611779       0.966911854       0.037298813
      25.000000000      24.400000000       0.044301099       0.967466431       0.037147741
      24.000000000      28.600000000       0.044766161       0.967812623       0.037067600
      23.000000000      33.400000000       0.045375830       0.968259372       0.036970961
      22.000000000      39.100000000       0.046157972       0.968839294       0.036853102
      21.000000000      45.800000000       0.047135214       0.969590101       0.036709654
      20.000000000      53.700000000       0.048331325       0.970561233       0.036536017
      19.000000000      62.800000000       0.049785076       0.971829440       0.036325510
      18.000000000      73.600000000       0.051561294       0.973444183       0.036073509
      17.000000000      86.100000000       0.053734648       0.975448888       0.035775594
      16.000000000     100.700000000       0.056369750       0.977962723       0.035424886
      15.000000000     117.800000000       0.059507304       0.981117508       0.035019714
      14.000000000     137.800000000       0.063194947       0.985095378       0.034559102
      13.000000000     161.100000000       0.067516498       0.990183545       0.034038820
      12.000000000     188.200000000       0.072520432       0.996744079       0.033460711
      11.000000000     219.900000000       0.078278639       1.005344832       0.032824410
      10.000000000     256.800000000       0.084961482       1.017044904       0.032118483
       9.000000000     299.300000000       0.095081283       1.031133417       0.031323457
       8.000000000     347.300000000       0.335579154       1.453511534       0.004399821
       7.000000000     401.600000000       0.375514492       1.544212864       0.003461154
       6.000000000     462.700000000       0.403754177       1.585808567       0.003301688
       5.000000000     531.300000000       0.450694419       1.633804872       0.003105920
       4.000000000     608.100000000       0.524260677       1.686139438       0.002860237
       3.000000000     693.800000000       0.639112176       1.737063566       0.002546576
       2.000000000     789.700000000       0.791738111       1.777685484       0.002181700
       1.000000000     897.300000000       0.972341485       1.799666401       0.001797213
       0.000000000    1018.000000000       1.952710423       1.976250212       0.000000000
# Wavelength (microns) 
       8.130081000
# Solar zenithal angle (deg) 
60.000
#     ALTITUDE           PRESSION           FLUX DW          FLUX UP           FLUX DIR
#       (KM)               (hPa)             (W.M-2)          (W.M-2)          (W.M-2) 
     120.000000000       0.000040000       0.036621239       1.166895445       0.036621239
     115.000000000       0.000060000       0.036621239       1.166895445       0.036621239
     110.000000000       0.000110000       0.036621239       1.166895445       0.036621239
     105.000000000       0.000200000       0.036621239       1.166895445       0.036621239
     100.000000000       0.000410000       0.036621239       1.166895445       0.036621239
      95.000000000       0.000880000       0.036621239       1.166895445       0.036621239
      90.000000000       0.001980000       0.036621239       1.166895445       0.036621239
      85.000000000       0.004560000       0.036621239       1.166895445       0.036621239
      80.000000000       0.010300000       0.036621239       1.166895445       0.036621239
      75.000000000       0.022200000       0.036621239       1.166895445       0.036621239
      70.000000000       0.047000000       0.036623008       1.166895742       0.036621113
      65.000000000       0.095000000       0.036633316       1.166893843       0.036620601
      60.000000000       0.188000000       0.036668235       1.166879627       0.036619339
      55.000000000       0.362000000       0.036765514       1.166825504       0.036616693
      50.000000000       0.683000000       0.037000490       1.166674906       0.036611431
      47.500000000       0.940000000       0.037194345       1.166545438       0.036607321
      45.000000000       1.290000000       0.037428435       1.166394833       0.036601860
      42.500000000       1.800000000       0.037683100       1.166249968       0.036594596
      40.000000000       2.530000000       0.037946582       1.166126635       0.036585096
      37.500000000       3.600000000       0.038213523       1.166039216       0.036572650
      35.000000000       5.180000000       0.038477124       1.166007655       0.036556289
      32.500000000       7.560000000       0.038730311       1.166059465       0.036534648
      30.000000000      11.100000000       0.038995875       1.166212926       0.036505141
      27.500000000      16.460000000       0.039321751       1.166488092       0.036463720
      25.000000000      24.400000000       0.039755794       1.166937819       0.036404842
      24.000000000      28.600000000       0.039973477       1.167181001       0.036375033
      23.000000000      33.400000000       0.040224096       1.167472329       0.036340729
      22.000000000      39.100000000       0.040512207       1.167822248       0.036301341
      21.000000000      45.800000000       0.040843511       1.168244041       0.036256134
      20.000000000      53.700000000       0.041224918       1.168755243       0.036204248
      19.000000000      62.800000000       0.041662790       1.169375461       0.036144932
      18.000000000      73.600000000       0.042174924       1.170124107       0.036077041
      17.000000000      86.100000000       0.042784342       1.171023180       0.035999284
      16.000000000     100.700000000       0.043508027       1.172106935       0.035910479
      15.000000000     117.800000000       0.044366357       1.173418144       0.035809220
      14.000000000     137.800000000       0.045383910       1.175011512       0.035693874
      13.000000000     161.100000000       0.046591116       1.176957742       0.035562480
      12.000000000     188.200000000       0.048024081       1.179344513       0.035412699
      11.000000000     219.900000000       0.049734491       1.182294018       0.035240919
      10.000000000     256.800000000       0.051825638       1.186006176       0.035038838
       9.000000000     299.300000000       0.055022284       1.190373374       0.034787415
       8.000000000     347.300000000       0.334633657       1.695310262       0.004988972
       7.000000000     401.600000000       0.368841440       1.779746265       0.004016545
       6.000000000     462.700000000       0.379537831       1.795955834       0.003937480
       5.000000000     531.300000000       0.399999935       1.815882297       0.003830315
       4.000000000     608.100000000       0.435930795       1.838958864       0.003684833
       3.000000000     693.800000000       0.499108925       1.863172920       0.003478803
       2.000000000     789.700000000       0.592211081       1.882853198       0.003216871
       1.000000000     897.300000000       0.713406452       1.892148401       0.002911271
       0.000000000    1018.000000000       2.066521270       2.093107537       0.000000000
# Wavelength (microns) 
       8.264462000
# Solar zenithal angle (deg) 
60.000
#     ALTITUDE           PRESSION           FLUX DW          FLUX UP           FLUX DIR
#       (KM)               (hPa)             (W.M-2)          (W.M-2)          (W.M-2) 
     120.000000000       0.000040000       0.035500535       1.283102132       0.035500535
     115.000000000       0.000060000       0.035500535       1.283102132       0.035500535
     110.000000000       0.000110000       0.035500535       1.283102132       0.035500535
     105.000000000       0.000200000       0.035500535       1.283102132       0.035500535
     100.000000000       0.000410000       0.035500535       1.283102132       0.035500535
      95.000000000       0.000880000       0.035500535       1.283102132       0.035500535
      90.000000000       0.001980000       0.035500535       1.283102132       0.035500535
      85.000000000       0.004560000       0.035500535       1.283102132       0.035500535
      80.000000000       0.010300000       0.035500535       1.283102132       0.035500535
      75.000000000       0.022200000       0.035500535       1.283102132       0.035500535
      70.000000000       0.047000000       0.035500535       1.283102132       0.035500535
      65.000000000       0.095000000       0.035503131       1.283102880       0.035500419
      60.000000000       0.188000000       0.035512425       1.283102337       0.035500116
      55.000000000       0.362000000       0.035539932       1.283094385       0.035499438
      50.000000000       0.683000000       0.035614309       1.283063735       0.035497924
      47.500000000       0.940000000       0.035678606       1.283035211       0.035496687
      45.000000000       1.290000000       0.035758184       1.283004112       0.035495012
      42.500000000       1.800000000       0.035844809       1.282981400       0.035492806
      40.000000000       2.530000000       0.035936338       1.282973970       0.035489908
      37.500000000       3.600000000       0.036030004       1.282989107       0.035486162
      35.000000000       5.180000000       0.036123218       1.283035281       0.035481366
      32.500000000       7.560000000       0.036214446       1.283122764       0.035475223
      30.000000000      11.100000000       0.036312429       1.283261215       0.035467101
      27.500000000      16.460000000       0.036434087       1.283464237       0.035455951
      25.000000000      24.400000000       0.036599619       1.283762316       0.035440051
      24.000000000      28.600000000       0.036681311       1.283911086       0.035432146
      23.000000000      33.400000000       0.036774521       1.284081058       0.035423120
      22.000000000      39.100000000       0.036882613       1.284278744       0.035412646
      21.000000000      45.800000000       0.037006023       1.284504922       0.035400677
      20.000000000      53.700000000       0.037146206       1.284762421       0.035387065
      19.000000000      62.800000000       0.037304262       1.285053484       0.035371699
      18.000000000      73.600000000       0.037485631       1.285383079       0.035354226
      17.000000000      86.100000000       0.037697921       1.285757883       0.035334167
      16.000000000     100.700000000       0.037947359       1.286185976       0.035311045
      15.000000000     117.800000000       0.038242183       1.286678154       0.035284225
      14.000000000     137.800000000       0.038592664       1.287247807       0.035252928
      13.000000000     161.100000000       0.039010168       1.287908985       0.035216319
      12.000000000     188.200000000       0.039507504       1.288675825       0.035173478
      11.000000000     219.900000000       0.040107805       1.289572091       0.035122648
      10.000000000     256.800000000       0.040887420       1.290669848       0.035057689
       9.000000000     299.300000000       0.042163375       1.292018336       0.034964317
       8.000000000     347.300000000       0.350371504       1.835059599       0.005036321
       7.000000000     401.600000000       0.385185795       1.918885407       0.004078374
       6.000000000     462.700000000       0.392266122       1.927353497       0.004022145
       5.000000000     531.300000000       0.407843501       1.939673911       0.003937420
       4.000000000     608.100000000       0.436929931       1.955924728       0.003821467
       3.000000000     693.800000000       0.490365343       1.975181989       0.003654750
       2.000000000     789.700000000       0.570991044       1.991984832       0.003435645
       1.000000000     897.300000000       0.678295029       2.001173235       0.003175253
       0.000000000    1018.000000000       2.186911155       2.215205415       0.000000000
# Wavelength (microns) 
       8.403361000
# Solar zenithal angle (deg) 
60.000
#     ALTITUDE           PRESSION           FLUX DW          FLUX UP           FLUX DIR
#       (KM)               (hPa)             (W.M-2)          (W.M-2)          (W.M-2) 
     120.000000000       0.000040000       0.034364805       1.364057029       0.034364805
     115.000000000       0.000060000       0.034364805       1.364057029       0.034364805
     110.000000000       0.000110000       0.034364805       1.364057029       0.034364805
     105.000000000       0.000200000       0.034364805       1.364057029       0.034364805
     100.000000000       0.000410000       0.034364805       1.364057029       0.034364805
      95.000000000       0.000880000       0.034364805       1.364057029       0.034364805
      90.000000000       0.001980000       0.034364805       1.364057029       0.034364805
      85.000000000       0.004560000       0.034364805       1.364057029       0.034364805
      80.000000000       0.010300000       0.034364805       1.364057029       0.034364805
      75.000000000       0.022200000       0.034364805       1.364057029       0.034364805
      70.000000000       0.047000000       0.034364805       1.364057029       0.034364805
      65.000000000       0.095000000       0.034368264       1.364057941       0.034364667
      60.000000000       0.188000000       0.034379345       1.364057153       0.034364340
      55.000000000       0.362000000       0.034413562       1.364047243       0.034363575
      50.000000000       0.683000000       0.034503573       1.364010304       0.034361907
      47.500000000       0.940000000       0.034585834       1.363974085       0.034360464
      45.000000000       1.290000000       0.034697660       1.363930792       0.034358322
      42.500000000       1.800000000       0.034836177       1.363894858       0.034355124
      40.000000000       2.530000000       0.035003762       1.363881319       0.034350331
      37.500000000       3.600000000       0.035197832       1.363911816       0.034343351
      35.000000000       5.180000000       0.035412958       1.364015499       0.034333446
      32.500000000       7.560000000       0.035644982       1.364231352       0.034319534
      30.000000000      11.100000000       0.035911346       1.364595964       0.034299951
      27.500000000      16.460000000       0.036251453       1.365146096       0.034272342
      25.000000000      24.400000000       0.036711719       1.365950736       0.034233172
      24.000000000      28.600000000       0.036939436       1.366354642       0.034213636
      23.000000000      33.400000000       0.037195439       1.366810101       0.034191644
      22.000000000      39.100000000       0.037482583       1.367322738       0.034166941
      21.000000000      45.800000000       0.037804555       1.367899837       0.034139195
      20.000000000      53.700000000       0.038161065       1.368541494       0.034108415
      19.000000000      62.800000000       0.038549991       1.369244575       0.034074764
      18.000000000      73.600000000       0.038979497       1.370012419       0.034037902
      17.000000000      86.100000000       0.039462732       1.370853845       0.033997179
      16.000000000     100.700000000       0.040010937       1.371784631       0.033951801
      15.000000000     117.800000000       0.040639738       1.372827053       0.033900658
      14.000000000     137.800000000       0.041369975       1.374010841       0.033842284
      13.000000000     161.100000000       0.042222615       1.375364255       0.033775272
      12.000000000     188.200000000       0.043211323       1.376901733       0.033698835
      11.000000000     219.900000000       0.044359350       1.378647207       0.033611492
      10.000000000     256.800000000       0.045746897       1.380680146       0.033507556
       9.000000000     299.300000000       0.047731975       1.382914364       0.033377231
       8.000000000     347.300000000       0.377181038       1.954844374       0.004795064
       7.000000000     401.600000000       0.414507676       2.043730999       0.003880444
       6.000000000     462.700000000       0.421657868       2.052728085       0.003829955
       5.000000000     531.300000000       0.436384351       2.064660419       0.003758741
       4.000000000     608.100000000       0.462868713       2.079527538       0.003664263
       3.000000000     693.800000000       0.510317549       2.096487916       0.003531507
       2.000000000     789.700000000       0.581686986       2.110839327       0.003355430
       1.000000000     897.300000000       0.678663905       2.118276597       0.003137961
       0.000000000    1018.000000000       2.312453078       2.342546380       0.000000000
# Wavelength (microns) 
       8.547009000
# Solar zenithal angle (deg) 
60.000
#     ALTITUDE           PRESSION           FLUX DW          FLUX UP           FLUX DIR
#       (KM)               (hPa)             (W.M-2)          (W.M-2)          (W.M-2) 
     120.000000000       0.000040000       0.033267955       1.446583415       0.033267955
     115.000000000       0.000060000       0.033267955       1.446583415       0.033267955
     110.000000000       0.000110000       0.033267955       1.446583415       0.033267955
